# E(meV)
     0.10000000
     0.20000000
     0.30000000
     0.40000000
     0.50000000
     0.60000000
     0.70000000
     0.80000000
     0.90000000
     1.00000000
     1.10000000
     1.20000000
     1.30000000
     1.40000000
     1.50000000
     1.60000000
     1.70000000
     1.80000000
     1.90000000
     2.00000000
     2.10000000
     2.20000000
     2.30000000
     2.40000000
     2.50000000
     2.60000000
     2.70000000
     2.80000000
     2.90000000
     3.00000000
     3.10000000
     3.20000000
     3.30000000
     3.40000000
     3.50000000
     3.60000000
     3.70000000
     3.80000000
     3.90000000
     4.00000000
     4.10000000
     4.20000000
     4.30000000
     4.40000000
     4.50000000
     4.60000000
     4.70000000
     4.80000000
     4.90000000
     5.00000000
     5.10000000
     5.20000000
     5.30000000
     5.40000000
     5.50000000
     5.60000000
     5.70000000
     5.80000000
     5.90000000
     6.00000000
     6.10000000
     6.20000000
     6.30000000
     6.40000000
     6.50000000
     6.60000000
     6.70000000
     6.80000000
     6.90000000
     7.00000000
     7.10000000
     7.20000000
     7.30000000
     7.40000000
     7.50000000
     7.60000000
     7.70000000
     7.80000000
     7.90000000
     8.00000000
     8.10000000
     8.20000000
     8.30000000
     8.40000000
     8.50000000
     8.60000000
     8.70000000
     8.80000000
     8.90000000
     9.00000000
     9.10000000
     9.20000000
     9.30000000
     9.40000000
     9.50000000
     9.60000000
     9.70000000
     9.80000000
     9.90000000
    10.00000000
    10.10000000
    10.20000000
    10.30000000
    10.40000000
    10.50000000
    10.60000000
    10.70000000
    10.80000000
    10.90000000
    11.00000000
    11.10000000
    11.20000000
    11.30000000
    11.40000000
    11.50000000
    11.60000000
    11.70000000
    11.80000000
    11.90000000
    12.00000000
    12.10000000
    12.20000000
    12.30000000
    12.40000000
    12.50000000
    12.60000000
    12.70000000
    12.80000000
    12.90000000
    13.00000000
    13.10000000
    13.20000000
    13.30000000
    13.40000000
    13.50000000
    13.60000000
    13.70000000
    13.80000000
    13.90000000
    14.00000000
    14.10000000
    14.20000000
    14.30000000
    14.40000000
    14.50000000
    14.60000000
    14.70000000
    14.80000000
    14.90000000
    15.00000000
    15.10000000
    15.20000000
    15.30000000
    15.40000000
    15.50000000
    15.60000000
    15.70000000
    15.80000000
    15.90000000
    16.00000000
    16.10000000
    16.20000000
    16.30000000
    16.40000000
    16.50000000
    16.60000000
    16.70000000
    16.80000000
    16.90000000
    17.00000000
    17.10000000
    17.20000000
    17.30000000
    17.40000000
    17.50000000
    17.60000000
    17.70000000
    17.80000000
    17.90000000
    18.00000000
    18.10000000
    18.20000000
    18.30000000
    18.40000000
    18.50000000
    18.60000000
    18.70000000
    18.80000000
    18.90000000
    19.00000000
    19.10000000
    19.20000000
    19.30000000
    19.40000000
    19.50000000
    19.60000000
    19.70000000
    19.80000000
    19.90000000
    20.00000000
    20.10000000
    20.20000000
    20.30000000
    20.40000000
    20.50000000
    20.60000000
    20.70000000
    20.80000000
    20.90000000
    21.00000000
    21.10000000
    21.20000000
    21.30000000
    21.40000000
    21.50000000
    21.60000000
    21.70000000
    21.80000000
    21.90000000
    22.00000000
    22.10000000
    22.20000000
    22.30000000
    22.40000000
    22.50000000
    22.60000000
    22.70000000
    22.80000000
    22.90000000
    23.00000000
    23.10000000
    23.20000000
    23.30000000
    23.40000000
    23.50000000
    23.60000000
    23.70000000
    23.80000000
    23.90000000
    24.00000000
    24.10000000
    24.20000000
    24.30000000
    24.40000000
    24.50000000
    24.60000000
    24.70000000
    24.80000000
    24.90000000
    25.00000000
    25.10000000
    25.20000000
    25.30000000
    25.40000000
    25.50000000
    25.60000000
    25.70000000
    25.80000000
    25.90000000
    26.00000000
    26.10000000
    26.20000000
    26.30000000
    26.40000000
    26.50000000
    26.60000000
    26.70000000
    26.80000000
    26.90000000
    27.00000000
    27.10000000
    27.20000000
    27.30000000
    27.40000000
    27.50000000
    27.60000000
    27.70000000
    27.80000000
    27.90000000
    28.00000000
    28.10000000
    28.20000000
    28.30000000
    28.40000000
    28.50000000
    28.60000000
    28.70000000
    28.80000000
    28.90000000
    29.00000000
    29.10000000
    29.20000000
    29.30000000
    29.40000000
    29.50000000
    29.60000000
    29.70000000
    29.80000000
    29.90000000
    30.00000000
    30.10000000
    30.20000000
    30.30000000
    30.40000000
    30.50000000
    30.60000000
    30.70000000
    30.80000000
    30.90000000
    31.00000000
    31.10000000
    31.20000000
    31.30000000
    31.40000000
    31.50000000
    31.60000000
    31.70000000
    31.80000000
    31.90000000
    32.00000000
    32.10000000
    32.20000000
    32.30000000
    32.40000000
    32.50000000
    32.60000000
    32.70000000
    32.80000000
    32.90000000
    33.00000000
    33.10000000
    33.20000000
    33.30000000
    33.40000000
    33.50000000
    33.60000000
    33.70000000
    33.80000000
    33.90000000
    34.00000000
    34.10000000
    34.20000000
    34.30000000
    34.40000000
    34.50000000
    34.60000000
    34.70000000
    34.80000000
    34.90000000
    35.00000000
    35.10000000
    35.20000000
    35.30000000
    35.40000000
    35.50000000
    35.60000000
    35.70000000
    35.80000000
    35.90000000
    36.00000000
    36.10000000
    36.20000000
    36.30000000
    36.40000000
    36.50000000
    36.60000000
    36.70000000
    36.80000000
    36.90000000
    37.00000000
    37.10000000
    37.20000000
    37.30000000
    37.40000000
    37.50000000
    37.60000000
    37.70000000
    37.80000000
    37.90000000
    38.00000000
    38.10000000
    38.20000000
    38.30000000
    38.40000000
    38.50000000
    38.60000000
    38.70000000
    38.80000000
    38.90000000
    39.00000000
    39.10000000
    39.20000000
    39.30000000
    39.40000000
    39.50000000
    39.60000000
    39.70000000
    39.80000000
    39.90000000
    40.00000000
    40.10000000
    40.20000000
    40.30000000
    40.40000000
    40.50000000
    40.60000000
    40.70000000
    40.80000000
    40.90000000
    41.00000000
    41.10000000
    41.20000000
    41.30000000
    41.40000000
    41.50000000
    41.60000000
    41.70000000
    41.80000000
    41.90000000
    42.00000000
    42.10000000
    42.20000000
    42.30000000
    42.40000000
    42.50000000
    42.60000000
    42.70000000
    42.80000000
    42.90000000
    43.00000000
    43.10000000
    43.20000000
    43.30000000
    43.40000000
    43.50000000
    43.60000000
    43.70000000
    43.80000000
    43.90000000
    44.00000000
    44.10000000
    44.20000000
    44.30000000
    44.40000000
    44.50000000
    44.60000000
    44.70000000
    44.80000000
    44.90000000
    45.00000000
    45.10000000
    45.20000000
    45.30000000
    45.40000000
    45.50000000
    45.60000000
    45.70000000
    45.80000000
    45.90000000
    46.00000000
    46.10000000
    46.20000000
    46.30000000
    46.40000000
    46.50000000
    46.60000000
    46.70000000
    46.80000000
    46.90000000
    47.00000000
    47.10000000
    47.20000000
    47.30000000
    47.40000000
    47.50000000
    47.60000000
    47.70000000
    47.80000000
    47.90000000
    48.00000000
    48.10000000
    48.20000000
    48.30000000
    48.40000000
    48.50000000
    48.60000000
    48.70000000
    48.80000000
    48.90000000
    49.00000000
    49.10000000
    49.20000000
    49.30000000
    49.40000000
    49.50000000
    49.60000000
    49.70000000
    49.80000000
    49.90000000
    50.00000000
    50.10000000
    50.20000000
    50.30000000
    50.40000000
    50.50000000
    50.60000000
    50.70000000
    50.80000000
    50.90000000
    51.00000000
    51.10000000
    51.20000000
    51.30000000
    51.40000000
    51.50000000
    51.60000000
    51.70000000
    51.80000000
    51.90000000
    52.00000000
    52.10000000
    52.20000000
    52.30000000
    52.40000000
    52.50000000
    52.60000000
    52.70000000
    52.80000000
    52.90000000
    53.00000000
    53.10000000
    53.20000000
    53.30000000
    53.40000000
    53.50000000
    53.60000000
    53.70000000
    53.80000000
    53.90000000
    54.00000000
    54.10000000
    54.20000000
    54.30000000
    54.40000000
    54.50000000
    54.60000000
    54.70000000
    54.80000000
    54.90000000
    55.00000000
    55.10000000
    55.20000000
    55.30000000
    55.40000000
    55.50000000
    55.60000000
    55.70000000
    55.80000000
    55.90000000
    56.00000000
    56.10000000
    56.20000000
    56.30000000
    56.40000000
    56.50000000
    56.60000000
    56.70000000
    56.80000000
    56.90000000
    57.00000000
    57.10000000
    57.20000000
    57.30000000
    57.40000000
    57.50000000
    57.60000000
    57.70000000
    57.80000000
    57.90000000
    58.00000000
    58.10000000
    58.20000000
    58.30000000
    58.40000000
    58.50000000
    58.60000000
    58.70000000
    58.80000000
    58.90000000
    59.00000000
    59.10000000
    59.20000000
    59.30000000
    59.40000000
    59.50000000
    59.60000000
    59.70000000
    59.80000000
    59.90000000
    60.00000000
    60.10000000
    60.20000000
    60.30000000
    60.40000000
    60.50000000
    60.60000000
    60.70000000
    60.80000000
    60.90000000
    61.00000000
    61.10000000
    61.20000000
    61.30000000
    61.40000000
    61.50000000
    61.60000000
    61.70000000
    61.80000000
    61.90000000
    62.00000000
    62.10000000
    62.20000000
    62.30000000
    62.40000000
    62.50000000
    62.60000000
    62.70000000
    62.80000000
    62.90000000
    63.00000000
    63.10000000
    63.20000000
    63.30000000
    63.40000000
    63.50000000
    63.60000000
    63.70000000
    63.80000000
    63.90000000
    64.00000000
    64.10000000
    64.20000000
    64.30000000
    64.40000000
    64.50000000
    64.60000000
    64.70000000
    64.80000000
    64.90000000
    65.00000000
    65.10000000
    65.20000000
    65.30000000
    65.40000000
    65.50000000
    65.60000000
    65.70000000
    65.80000000
    65.90000000
    66.00000000
    66.10000000
    66.20000000
    66.30000000
    66.40000000
    66.50000000
    66.60000000
    66.70000000
    66.80000000
    66.90000000
    67.00000000
    67.10000000
    67.20000000
    67.30000000
    67.40000000
    67.50000000
    67.60000000
    67.70000000
    67.80000000
    67.90000000
    68.00000000
    68.10000000
    68.20000000
    68.30000000
    68.40000000
    68.50000000
    68.60000000
    68.70000000
    68.80000000
    68.90000000
    69.00000000
    69.10000000
    69.20000000
    69.30000000
    69.40000000
    69.50000000
    69.60000000
    69.70000000
    69.80000000
    69.90000000
    70.00000000
    70.10000000
    70.20000000
    70.30000000
    70.40000000
    70.50000000
    70.60000000
    70.70000000
    70.80000000
    70.90000000
    71.00000000
    71.10000000
    71.20000000
    71.30000000
    71.40000000
    71.50000000
    71.60000000
    71.70000000
    71.80000000
    71.90000000
    72.00000000
    72.10000000
    72.20000000
    72.30000000
    72.40000000
    72.50000000
    72.60000000
    72.70000000
    72.80000000
    72.90000000
    73.00000000
    73.10000000
    73.20000000
    73.30000000
    73.40000000
    73.50000000
    73.60000000
    73.70000000
    73.80000000
    73.90000000
    74.00000000
    74.10000000
    74.20000000
    74.30000000
    74.40000000
    74.50000000
    74.60000000
    74.70000000
    74.80000000
    74.90000000
    75.00000000
    75.10000000
    75.20000000
    75.30000000
    75.40000000
    75.50000000
    75.60000000
    75.70000000
    75.80000000
    75.90000000
    76.00000000
    76.10000000
    76.20000000
    76.30000000
    76.40000000
    76.50000000
    76.60000000
    76.70000000
    76.80000000
    76.90000000
    77.00000000
    77.10000000
    77.20000000
    77.30000000
    77.40000000
    77.50000000
    77.60000000
    77.70000000
    77.80000000
    77.90000000
    78.00000000
    78.10000000
    78.20000000
    78.30000000
    78.40000000
    78.50000000
    78.60000000
    78.70000000
    78.80000000
    78.90000000
    79.00000000
    79.10000000
    79.20000000
    79.30000000
    79.40000000
    79.50000000
    79.60000000
    79.70000000
    79.80000000
    79.90000000
    80.00000000
    80.10000000
    80.20000000
    80.30000000
    80.40000000
    80.50000000
    80.60000000
    80.70000000
    80.80000000
    80.90000000
    81.00000000
    81.10000000
    81.20000000
    81.30000000
    81.40000000
    81.50000000
    81.60000000
    81.70000000
    81.80000000
    81.90000000
    82.00000000
    82.10000000
    82.20000000
    82.30000000
    82.40000000
    82.50000000
    82.60000000
    82.70000000
    82.80000000
    82.90000000
    83.00000000
    83.10000000
    83.20000000
    83.30000000
    83.40000000
    83.50000000
    83.60000000
    83.70000000
    83.80000000
    83.90000000
    84.00000000
    84.10000000
    84.20000000
    84.30000000
    84.40000000
    84.50000000
    84.60000000
    84.70000000
    84.80000000
    84.90000000
    85.00000000
    85.10000000
    85.20000000
    85.30000000
    85.40000000
    85.50000000
    85.60000000
    85.70000000
    85.80000000
    85.90000000
    86.00000000
    86.10000000
    86.20000000
    86.30000000
    86.40000000
    86.50000000
    86.60000000
    86.70000000
    86.80000000
    86.90000000
    87.00000000
    87.10000000
    87.20000000
    87.30000000
    87.40000000
    87.50000000
    87.60000000
    87.70000000
    87.80000000
    87.90000000
    88.00000000
    88.10000000
    88.20000000
    88.30000000
    88.40000000
    88.50000000
    88.60000000
    88.70000000
    88.80000000
    88.90000000
    89.00000000
    89.10000000
    89.20000000
    89.30000000
    89.40000000
    89.50000000
    89.60000000
    89.70000000
    89.80000000
    89.90000000
    90.00000000
    90.10000000
    90.20000000
    90.30000000
    90.40000000
    90.50000000
    90.60000000
    90.70000000
    90.80000000
    90.90000000
    91.00000000
    91.10000000
    91.20000000
    91.30000000
    91.40000000
    91.50000000
    91.60000000
    91.70000000
    91.80000000
    91.90000000
    92.00000000
    92.10000000
    92.20000000
    92.30000000
    92.40000000
    92.50000000
    92.60000000
    92.70000000
    92.80000000
    92.90000000
    93.00000000
    93.10000000
    93.20000000
    93.30000000
    93.40000000
    93.50000000
    93.60000000
    93.70000000
    93.80000000
    93.90000000
    94.00000000
    94.10000000
    94.20000000
    94.30000000
    94.40000000
    94.50000000
    94.60000000
    94.70000000
    94.80000000
    94.90000000
    95.00000000
    95.10000000
    95.20000000
    95.30000000
    95.40000000
    95.50000000
    95.60000000
    95.70000000
    95.80000000
    95.90000000
    96.00000000
    96.10000000
    96.20000000
    96.30000000
    96.40000000
    96.50000000
    96.60000000
    96.70000000
    96.80000000
    96.90000000
    97.00000000
    97.10000000
    97.20000000
    97.30000000
    97.40000000
    97.50000000
    97.60000000
    97.70000000
    97.80000000
    97.90000000
    98.00000000
    98.10000000
    98.20000000
    98.30000000
    98.40000000
    98.50000000
    98.60000000
    98.70000000
    98.80000000
    98.90000000
    99.00000000
    99.10000000
    99.20000000
    99.30000000
    99.40000000
    99.50000000
    99.60000000
    99.70000000
    99.80000000
    99.90000000
   100.00000000
   100.10000000
   100.20000000
   100.30000000
   100.40000000
   100.50000000
   100.60000000
   100.70000000
   100.80000000
   100.90000000
   101.00000000
   101.10000000
   101.20000000
   101.30000000
   101.40000000
   101.50000000
   101.60000000
   101.70000000
   101.80000000
   101.90000000
   102.00000000
   102.10000000
   102.20000000
   102.30000000
   102.40000000
   102.50000000
   102.60000000
   102.70000000
   102.80000000
   102.90000000
   103.00000000
   103.10000000
   103.20000000
   103.30000000
   103.40000000
   103.50000000
   103.60000000
   103.70000000
   103.80000000
   103.90000000
   104.00000000
   104.10000000
   104.20000000
   104.30000000
   104.40000000
   104.50000000
   104.60000000
   104.70000000
   104.80000000
   104.90000000
   105.00000000
   105.10000000
   105.20000000
   105.30000000
   105.40000000
   105.50000000
   105.60000000
   105.70000000
   105.80000000
   105.90000000
   106.00000000
   106.10000000
   106.20000000
   106.30000000
   106.40000000
   106.50000000
   106.60000000
   106.70000000
   106.80000000
   106.90000000
   107.00000000
   107.10000000
   107.20000000
   107.30000000
   107.40000000
   107.50000000
   107.60000000
   107.70000000
   107.80000000
   107.90000000
   108.00000000
   108.10000000
   108.20000000
   108.30000000
   108.40000000
   108.50000000
   108.60000000
   108.70000000
   108.80000000
   108.90000000
   109.00000000
   109.10000000
   109.20000000
   109.30000000
   109.40000000
   109.50000000
   109.60000000
   109.70000000
   109.80000000
   109.90000000
   110.00000000
   110.10000000
   110.20000000
   110.30000000
   110.40000000
   110.50000000
   110.60000000
   110.70000000
   110.80000000
   110.90000000
   111.00000000
   111.10000000
   111.20000000
   111.30000000
   111.40000000
   111.50000000
   111.60000000
   111.70000000
   111.80000000
   111.90000000
   112.00000000
   112.10000000
   112.20000000
   112.30000000
   112.40000000
   112.50000000
   112.60000000
   112.70000000
   112.80000000
   112.90000000
   113.00000000
   113.10000000
   113.20000000
   113.30000000
   113.40000000
   113.50000000
   113.60000000
   113.70000000
   113.80000000
   113.90000000
   114.00000000
   114.10000000
   114.20000000
   114.30000000
   114.40000000
   114.50000000
   114.60000000
   114.70000000
   114.80000000
   114.90000000
   115.00000000
   115.10000000
   115.20000000
   115.30000000
   115.40000000
   115.50000000
   115.60000000
   115.70000000
   115.80000000
   115.90000000
   116.00000000
   116.10000000
   116.20000000
   116.30000000
   116.40000000
   116.50000000
   116.60000000
   116.70000000
   116.80000000
   116.90000000
   117.00000000
   117.10000000
   117.20000000
   117.30000000
   117.40000000
   117.50000000
   117.60000000
   117.70000000
   117.80000000
   117.90000000
   118.00000000
   118.10000000
   118.20000000
   118.30000000
   118.40000000
   118.50000000
   118.60000000
   118.70000000
   118.80000000
   118.90000000
   119.00000000
   119.10000000
   119.20000000
   119.30000000
   119.40000000
   119.50000000
   119.60000000
   119.70000000
   119.80000000
   119.90000000
   120.00000000
   120.10000000
   120.20000000
   120.30000000
   120.40000000
   120.50000000
   120.60000000
   120.70000000
   120.80000000
   120.90000000
   121.00000000
   121.10000000
   121.20000000
   121.30000000
   121.40000000
   121.50000000
   121.60000000
   121.70000000
   121.80000000
   121.90000000
   122.00000000
   122.10000000
   122.20000000
   122.30000000
   122.40000000
   122.50000000
   122.60000000
   122.70000000
   122.80000000
   122.90000000
   123.00000000
   123.10000000
   123.20000000
   123.30000000
   123.40000000
   123.50000000
   123.60000000
   123.70000000
   123.80000000
   123.90000000
   124.00000000
   124.10000000
   124.20000000
   124.30000000
   124.40000000
   124.50000000
   124.60000000
   124.70000000
   124.80000000
   124.90000000
   125.00000000
   125.10000000
   125.20000000
   125.30000000
   125.40000000
   125.50000000
   125.60000000
   125.70000000
   125.80000000
   125.90000000
   126.00000000
   126.10000000
   126.20000000
   126.30000000
   126.40000000
   126.50000000
   126.60000000
   126.70000000
   126.80000000
   126.90000000
   127.00000000
   127.10000000
   127.20000000
   127.30000000
   127.40000000
   127.50000000
   127.60000000
   127.70000000
   127.80000000
   127.90000000
   128.00000000
   128.10000000
   128.20000000
   128.30000000
   128.40000000
   128.50000000
   128.60000000
   128.70000000
   128.80000000
   128.90000000
   129.00000000
   129.10000000
   129.20000000
   129.30000000
   129.40000000
   129.50000000
   129.60000000
   129.70000000
   129.80000000
   129.90000000
   130.00000000
   130.10000000
   130.20000000
   130.30000000
   130.40000000
   130.50000000
   130.60000000
   130.70000000
   130.80000000
   130.90000000
   131.00000000
   131.10000000
   131.20000000
   131.30000000
   131.40000000
   131.50000000
   131.60000000
   131.70000000
   131.80000000
   131.90000000
   132.00000000
   132.10000000
   132.20000000
   132.30000000
   132.40000000
   132.50000000
   132.60000000
   132.70000000
   132.80000000
   132.90000000
   133.00000000
   133.10000000
   133.20000000
   133.30000000
   133.40000000
   133.50000000
   133.60000000
   133.70000000
   133.80000000
   133.90000000
   134.00000000
   134.10000000
   134.20000000
   134.30000000
   134.40000000
   134.50000000
   134.60000000
   134.70000000
   134.80000000
   134.90000000
   135.00000000
   135.10000000
   135.20000000
   135.30000000
   135.40000000
   135.50000000
   135.60000000
   135.70000000
   135.80000000
   135.90000000
   136.00000000
   136.10000000
   136.20000000
   136.30000000
   136.40000000
   136.50000000
   136.60000000
   136.70000000
   136.80000000
   136.90000000
   137.00000000
   137.10000000
   137.20000000
   137.30000000
   137.40000000
   137.50000000
   137.60000000
   137.70000000
   137.80000000
   137.90000000
   138.00000000
   138.10000000
   138.20000000
   138.30000000
   138.40000000
   138.50000000
   138.60000000
   138.70000000
   138.80000000
   138.90000000
   139.00000000
   139.10000000
   139.20000000
   139.30000000
   139.40000000
   139.50000000
   139.60000000
   139.70000000
   139.80000000
   139.90000000
   140.00000000
   140.10000000
   140.20000000
   140.30000000
   140.40000000
   140.50000000
   140.60000000
   140.70000000
   140.80000000
   140.90000000
   141.00000000
   141.10000000
   141.20000000
   141.30000000
   141.40000000
   141.50000000
   141.60000000
   141.70000000
   141.80000000
   141.90000000
   142.00000000
   142.10000000
   142.20000000
   142.30000000
   142.40000000
   142.50000000
   142.60000000
   142.70000000
   142.80000000
   142.90000000
   143.00000000
   143.10000000
   143.20000000
   143.30000000
   143.40000000
   143.50000000
   143.60000000
   143.70000000
   143.80000000
   143.90000000
   144.00000000
   144.10000000
   144.20000000
   144.30000000
   144.40000000
   144.50000000
   144.60000000
   144.70000000
   144.80000000
   144.90000000
   145.00000000
   145.10000000
   145.20000000
   145.30000000
   145.40000000
   145.50000000
   145.60000000
   145.70000000
   145.80000000
   145.90000000
   146.00000000
   146.10000000
   146.20000000
   146.30000000
   146.40000000
   146.50000000
   146.60000000
   146.70000000
   146.80000000
   146.90000000
   147.00000000
   147.10000000
   147.20000000
   147.30000000
   147.40000000
   147.50000000
   147.60000000
   147.70000000
   147.80000000
   147.90000000
   148.00000000
   148.10000000
   148.20000000
   148.30000000
   148.40000000
   148.50000000
   148.60000000
   148.70000000
   148.80000000
   148.90000000
   149.00000000
   149.10000000
   149.20000000
   149.30000000
   149.40000000
   149.50000000
   149.60000000
   149.70000000
   149.80000000
   149.90000000
   150.00000000
   150.10000000
   150.20000000
   150.30000000
   150.40000000
   150.50000000
   150.60000000
   150.70000000
   150.80000000
   150.90000000
   151.00000000
   151.10000000
   151.20000000
   151.30000000
   151.40000000
   151.50000000
   151.60000000
   151.70000000
   151.80000000
   151.90000000
   152.00000000
   152.10000000
   152.20000000
   152.30000000
   152.40000000
   152.50000000
   152.60000000
   152.70000000
   152.80000000
   152.90000000
   153.00000000
   153.10000000
   153.20000000
   153.30000000
   153.40000000
   153.50000000
   153.60000000
   153.70000000
   153.80000000
   153.90000000
   154.00000000
   154.10000000
   154.20000000
   154.30000000
   154.40000000
   154.50000000
   154.60000000
   154.70000000
   154.80000000
   154.90000000
   155.00000000
   155.10000000
   155.20000000
   155.30000000
   155.40000000
   155.50000000
   155.60000000
   155.70000000
   155.80000000
   155.90000000
   156.00000000
   156.10000000
   156.20000000
   156.30000000
   156.40000000
   156.50000000
   156.60000000
   156.70000000
   156.80000000
   156.90000000
   157.00000000
   157.10000000
   157.20000000
   157.30000000
   157.40000000
   157.50000000
   157.60000000
   157.70000000
   157.80000000
   157.90000000
   158.00000000
   158.10000000
   158.20000000
   158.30000000
   158.40000000
   158.50000000
   158.60000000
   158.70000000
   158.80000000
   158.90000000
   159.00000000
   159.10000000
   159.20000000
   159.30000000
   159.40000000
   159.50000000
   159.60000000
   159.70000000
   159.80000000
   159.90000000
   160.00000000
   160.10000000
   160.20000000
   160.30000000
   160.40000000
   160.50000000
   160.60000000
   160.70000000
   160.80000000
   160.90000000
   161.00000000
   161.10000000
   161.20000000
   161.30000000
   161.40000000
   161.50000000
   161.60000000
   161.70000000
   161.80000000
   161.90000000
   162.00000000
   162.10000000
   162.20000000
   162.30000000
   162.40000000
   162.50000000
   162.60000000
   162.70000000
   162.80000000
   162.90000000
   163.00000000
   163.10000000
   163.20000000
   163.30000000
   163.40000000
   163.50000000
   163.60000000
   163.70000000
   163.80000000
   163.90000000
   164.00000000
   164.10000000
   164.20000000
   164.30000000
   164.40000000
   164.50000000
   164.60000000
   164.70000000
   164.80000000
   164.90000000
   165.00000000
   165.10000000
   165.20000000
   165.30000000
   165.40000000
   165.50000000
   165.60000000
   165.70000000
   165.80000000
   165.90000000
   166.00000000
   166.10000000
   166.20000000
   166.30000000
   166.40000000
   166.50000000
   166.60000000
   166.70000000
   166.80000000
   166.90000000
   167.00000000
   167.10000000
   167.20000000
   167.30000000
   167.40000000
   167.50000000
   167.60000000
   167.70000000
   167.80000000
   167.90000000
   168.00000000
   168.10000000
   168.20000000
   168.30000000
   168.40000000
   168.50000000
   168.60000000
   168.70000000
   168.80000000
   168.90000000
   169.00000000
   169.10000000
   169.20000000
   169.30000000
   169.40000000
   169.50000000
   169.60000000
   169.70000000
   169.80000000
   169.90000000
   170.00000000
   170.10000000
   170.20000000
   170.30000000
   170.40000000
   170.50000000
   170.60000000
   170.70000000
   170.80000000
   170.90000000
   171.00000000
   171.10000000
   171.20000000
   171.30000000
   171.40000000
   171.50000000
   171.60000000
   171.70000000
   171.80000000
   171.90000000
   172.00000000
   172.10000000
   172.20000000
   172.30000000
   172.40000000
   172.50000000
   172.60000000
   172.70000000
   172.80000000
   172.90000000
   173.00000000
   173.10000000
   173.20000000
   173.30000000
   173.40000000
   173.50000000
   173.60000000
   173.70000000
   173.80000000
   173.90000000
   174.00000000
   174.10000000
   174.20000000
   174.30000000
   174.40000000
   174.50000000
   174.60000000
   174.70000000
   174.80000000
   174.90000000
   175.00000000
   175.10000000
   175.20000000
   175.30000000
   175.40000000
   175.50000000
   175.60000000
   175.70000000
   175.80000000
   175.90000000
   176.00000000
   176.10000000
   176.20000000
   176.30000000
   176.40000000
   176.50000000
   176.60000000
   176.70000000
   176.80000000
   176.90000000
   177.00000000
   177.10000000
   177.20000000
   177.30000000
   177.40000000
   177.50000000
   177.60000000
   177.70000000
   177.80000000
   177.90000000
   178.00000000
   178.10000000
   178.20000000
   178.30000000
   178.40000000
   178.50000000
   178.60000000
   178.70000000
   178.80000000
   178.90000000
   179.00000000
   179.10000000
   179.20000000
   179.30000000
   179.40000000
   179.50000000
   179.60000000
   179.70000000
   179.80000000
   179.90000000
   180.00000000
   180.10000000
   180.20000000
   180.30000000
   180.40000000
   180.50000000
   180.60000000
   180.70000000
   180.80000000
   180.90000000
   181.00000000
   181.10000000
   181.20000000
   181.30000000
   181.40000000
   181.50000000
   181.60000000
   181.70000000
   181.80000000
   181.90000000
   182.00000000
   182.10000000
   182.20000000
   182.30000000
   182.40000000
   182.50000000
   182.60000000
   182.70000000
   182.80000000
   182.90000000
   183.00000000
   183.10000000
   183.20000000
   183.30000000
   183.40000000
   183.50000000
   183.60000000
   183.70000000
   183.80000000
   183.90000000
   184.00000000
   184.10000000
   184.20000000
   184.30000000
   184.40000000
   184.50000000
   184.60000000
   184.70000000
   184.80000000
   184.90000000
   185.00000000
   185.10000000
   185.20000000
   185.30000000
   185.40000000
   185.50000000
   185.60000000
   185.70000000
   185.80000000
   185.90000000
   186.00000000
   186.10000000
   186.20000000
   186.30000000
   186.40000000
   186.50000000
   186.60000000
   186.70000000
   186.80000000
   186.90000000
   187.00000000
   187.10000000
   187.20000000
   187.30000000
   187.40000000
   187.50000000
   187.60000000
   187.70000000
   187.80000000
   187.90000000
   188.00000000
   188.10000000
   188.20000000
   188.30000000
   188.40000000
   188.50000000
   188.60000000
   188.70000000
   188.80000000
   188.90000000
   189.00000000
   189.10000000
   189.20000000
   189.30000000
   189.40000000
   189.50000000
   189.60000000
   189.70000000
   189.80000000
   189.90000000
   190.00000000
   190.10000000
   190.20000000
   190.30000000
   190.40000000
   190.50000000
   190.60000000
   190.70000000
   190.80000000
   190.90000000
   191.00000000
   191.10000000
   191.20000000
   191.30000000
   191.40000000
   191.50000000
   191.60000000
   191.70000000
   191.80000000
   191.90000000
   192.00000000
   192.10000000
   192.20000000
   192.30000000
   192.40000000
   192.50000000
   192.60000000
   192.70000000
   192.80000000
   192.90000000
   193.00000000
   193.10000000
   193.20000000
   193.30000000
   193.40000000
   193.50000000
   193.60000000
   193.70000000
   193.80000000
   193.90000000
   194.00000000
   194.10000000
   194.20000000
   194.30000000
   194.40000000
   194.50000000
   194.60000000
   194.70000000
   194.80000000
   194.90000000
   195.00000000
   195.10000000
   195.20000000
   195.30000000
   195.40000000
   195.50000000
   195.60000000
   195.70000000
   195.80000000
   195.90000000
   196.00000000
   196.10000000
   196.20000000
   196.30000000
   196.40000000
   196.50000000
   196.60000000
   196.70000000
   196.80000000
   196.90000000
   197.00000000
   197.10000000
   197.20000000
   197.30000000
   197.40000000
   197.50000000
   197.60000000
   197.70000000
   197.80000000
   197.90000000
   198.00000000
   198.10000000
   198.20000000
   198.30000000
   198.40000000
   198.50000000
   198.60000000
   198.70000000
   198.80000000
   198.90000000
   199.00000000
   199.10000000
   199.20000000
   199.30000000
   199.40000000
   199.50000000
   199.60000000
   199.70000000
   199.80000000
   199.90000000
   200.00000000
   200.10000000
   200.20000000
   200.30000000
   200.40000000
   200.50000000
   200.60000000
   200.70000000
   200.80000000
   200.90000000
   201.00000000
   201.10000000
   201.20000000
   201.30000000
   201.40000000
   201.50000000
   201.60000000
   201.70000000
   201.80000000
   201.90000000
   202.00000000
   202.10000000
   202.20000000
   202.30000000
   202.40000000
   202.50000000
   202.60000000
   202.70000000
   202.80000000
   202.90000000
   203.00000000
   203.10000000
   203.20000000
   203.30000000
   203.40000000
   203.50000000
   203.60000000
   203.70000000
   203.80000000
   203.90000000
   204.00000000
   204.10000000
   204.20000000
   204.30000000
   204.40000000
   204.50000000
   204.60000000
   204.70000000
   204.80000000
   204.90000000
   205.00000000
   205.10000000
   205.20000000
   205.30000000
   205.40000000
   205.50000000
   205.60000000
   205.70000000
   205.80000000
   205.90000000
   206.00000000
   206.10000000
   206.20000000
   206.30000000
   206.40000000
   206.50000000
   206.60000000
   206.70000000
   206.80000000
   206.90000000
   207.00000000
   207.10000000
   207.20000000
   207.30000000
   207.40000000
   207.50000000
   207.60000000
   207.70000000
   207.80000000
   207.90000000
   208.00000000
   208.10000000
   208.20000000
   208.30000000
   208.40000000
   208.50000000
   208.60000000
   208.70000000
   208.80000000
   208.90000000
   209.00000000
   209.10000000
   209.20000000
   209.30000000
   209.40000000
   209.50000000
   209.60000000
   209.70000000
   209.80000000
   209.90000000
   210.00000000
   210.10000000
   210.20000000
   210.30000000
   210.40000000
   210.50000000
   210.60000000
   210.70000000
   210.80000000
   210.90000000
   211.00000000
   211.10000000
   211.20000000
   211.30000000
   211.40000000
   211.50000000
   211.60000000
   211.70000000
   211.80000000
   211.90000000
   212.00000000
   212.10000000
   212.20000000
   212.30000000
   212.40000000
   212.50000000
   212.60000000
   212.70000000
   212.80000000
   212.90000000
   213.00000000
   213.10000000
   213.20000000
   213.30000000
   213.40000000
   213.50000000
   213.60000000
   213.70000000
   213.80000000
   213.90000000
   214.00000000
   214.10000000
   214.20000000
   214.30000000
   214.40000000
   214.50000000
   214.60000000
   214.70000000
   214.80000000
   214.90000000
   215.00000000
   215.10000000
   215.20000000
   215.30000000
   215.40000000
   215.50000000
   215.60000000
   215.70000000
   215.80000000
   215.90000000
   216.00000000
   216.10000000
   216.20000000
   216.30000000
   216.40000000
   216.50000000
   216.60000000
   216.70000000
   216.80000000
   216.90000000
   217.00000000
   217.10000000
   217.20000000
   217.30000000
   217.40000000
   217.50000000
   217.60000000
   217.70000000
   217.80000000
   217.90000000
   218.00000000
   218.10000000
   218.20000000
   218.30000000
   218.40000000
   218.50000000
   218.60000000
   218.70000000
   218.80000000
   218.90000000
   219.00000000
   219.10000000
   219.20000000
   219.30000000
   219.40000000
   219.50000000
   219.60000000
   219.70000000
   219.80000000
   219.90000000
   220.00000000
   220.10000000
   220.20000000
   220.30000000
   220.40000000
   220.50000000
   220.60000000
   220.70000000
   220.80000000
   220.90000000
   221.00000000
   221.10000000
   221.20000000
   221.30000000
   221.40000000
   221.50000000
   221.60000000
   221.70000000
   221.80000000
   221.90000000
   222.00000000
   222.10000000
   222.20000000
   222.30000000
   222.40000000
   222.50000000
   222.60000000
   222.70000000
   222.80000000
   222.90000000
   223.00000000
   223.10000000
   223.20000000
   223.30000000
   223.40000000
   223.50000000
   223.60000000
   223.70000000
   223.80000000
   223.90000000
   224.00000000
   224.10000000
   224.20000000
   224.30000000
   224.40000000
   224.50000000
   224.60000000
   224.70000000
   224.80000000
   224.90000000
   225.00000000
   225.10000000
   225.20000000
   225.30000000
   225.40000000
   225.50000000
   225.60000000
   225.70000000
   225.80000000
   225.90000000
   226.00000000
   226.10000000
   226.20000000
   226.30000000
   226.40000000
   226.50000000
   226.60000000
   226.70000000
   226.80000000
   226.90000000
   227.00000000
   227.10000000
   227.20000000
   227.30000000
   227.40000000
   227.50000000
   227.60000000
   227.70000000
   227.80000000
   227.90000000
   228.00000000
   228.10000000
   228.20000000
   228.30000000
   228.40000000
   228.50000000
   228.60000000
   228.70000000
   228.80000000
   228.90000000
   229.00000000
   229.10000000
   229.20000000
   229.30000000
   229.40000000
   229.50000000
   229.60000000
   229.70000000
   229.80000000
   229.90000000
   230.00000000
   230.10000000
   230.20000000
   230.30000000
   230.40000000
   230.50000000
   230.60000000
   230.70000000
   230.80000000
   230.90000000
   231.00000000
   231.10000000
   231.20000000
   231.30000000
   231.40000000
   231.50000000
   231.60000000
   231.70000000
   231.80000000
   231.90000000
   232.00000000
   232.10000000
   232.20000000
   232.30000000
   232.40000000
   232.50000000
   232.60000000
   232.70000000
   232.80000000
   232.90000000
   233.00000000
   233.10000000
   233.20000000
   233.30000000
   233.40000000
   233.50000000
   233.60000000
   233.70000000
   233.80000000
   233.90000000
   234.00000000
   234.10000000
   234.20000000
   234.30000000
   234.40000000
   234.50000000
   234.60000000
   234.70000000
   234.80000000
   234.90000000
   235.00000000
   235.10000000
   235.20000000
   235.30000000
   235.40000000
   235.50000000
   235.60000000
   235.70000000
   235.80000000
   235.90000000
   236.00000000
   236.10000000
   236.20000000
   236.30000000
   236.40000000
   236.50000000
   236.60000000
   236.70000000
   236.80000000
   236.90000000
   237.00000000
   237.10000000
   237.20000000
   237.30000000
   237.40000000
   237.50000000
   237.60000000
   237.70000000
   237.80000000
   237.90000000
   238.00000000
   238.10000000
   238.20000000
   238.30000000
   238.40000000
   238.50000000
   238.60000000
   238.70000000
   238.80000000
   238.90000000
   239.00000000
   239.10000000
   239.20000000
   239.30000000
   239.40000000
   239.50000000
   239.60000000
   239.70000000
   239.80000000
   239.90000000
   240.00000000
   240.10000000
   240.20000000
   240.30000000
   240.40000000
   240.50000000
   240.60000000
   240.70000000
   240.80000000
   240.90000000
   241.00000000
   241.10000000
   241.20000000
   241.30000000
   241.40000000
   241.50000000
   241.60000000
   241.70000000
   241.80000000
   241.90000000
   242.00000000
   242.10000000
   242.20000000
   242.30000000
   242.40000000
   242.50000000
   242.60000000
   242.70000000
   242.80000000
   242.90000000
   243.00000000
   243.10000000
   243.20000000
   243.30000000
   243.40000000
   243.50000000
   243.60000000
   243.70000000
   243.80000000
   243.90000000
   244.00000000
   244.10000000
   244.20000000
   244.30000000
   244.40000000
   244.50000000
   244.60000000
   244.70000000
   244.80000000
   244.90000000
   245.00000000
   245.10000000
   245.20000000
   245.30000000
   245.40000000
   245.50000000
   245.60000000
   245.70000000
   245.80000000
   245.90000000
   246.00000000
   246.10000000
   246.20000000
   246.30000000
   246.40000000
   246.50000000
   246.60000000
   246.70000000
   246.80000000
   246.90000000
   247.00000000
   247.10000000
   247.20000000
   247.30000000
   247.40000000
   247.50000000
   247.60000000
   247.70000000
   247.80000000
   247.90000000
   248.00000000
   248.10000000
   248.20000000
   248.30000000
   248.40000000
   248.50000000
   248.60000000
   248.70000000
   248.80000000
   248.90000000
   249.00000000
   249.10000000
   249.20000000
   249.30000000
   249.40000000
   249.50000000
   249.60000000
   249.70000000
   249.80000000
   249.90000000
   250.00000000
